Date	3/20/2023
Spectrometer	SR200544
Lamp SN	F1626-03
Int. Time(usec)	1000000
Average	0
Boxcar	0
Fiber (micron)	 3900 
	
[uJoule/count]
179.27419	0.0000000E+00
179.74672	0.0000000E+00
180.21921	0.0000000E+00
180.69166	0.0000000E+00
181.16405	0.0000000E+00
181.63641	0.0000000E+00
182.10872	0.0000000E+00
182.58098	0.0000000E+00
183.05319	0.0000000E+00
183.52536	0.0000000E+00
183.99749	0.0000000E+00
184.46957	0.0000000E+00
184.94160	0.0000000E+00
185.41359	0.0000000E+00
185.88553	0.0000000E+00
186.35743	0.0000000E+00
186.82928	0.0000000E+00
187.30108	0.0000000E+00
187.77284	0.0000000E+00
188.24456	0.0000000E+00
188.71622	0.0000000E+00
189.18785	0.0000000E+00
189.65942	0.0000000E+00
190.13095	0.0000000E+00
190.60244	0.0000000E+00
191.07387	0.0000000E+00
191.54527	0.0000000E+00
192.01662	0.0000000E+00
192.48792	0.0000000E+00
192.95917	0.0000000E+00
193.43038	0.0000000E+00
193.90155	0.0000000E+00
194.37266	0.0000000E+00
194.84374	0.0000000E+00
195.31476	0.0000000E+00
195.78574	0.0000000E+00
196.25668	0.0000000E+00
196.72757	0.0000000E+00
197.19841	0.0000000E+00
197.66921	0.0000000E+00
198.13996	0.0000000E+00
198.61066	0.0000000E+00
199.08132	0.0000000E+00
199.55193	0.0000000E+00
200.02250	2.1593394E-05
200.49302	4.4295774E-04
200.96350	9.3887721E-04
201.43393	1.4485636E-03
201.90431	1.9707828E-03
202.37465	1.8731678E-03
202.84494	1.9245011E-03
203.31519	1.9713688E-03
203.78539	1.7290189E-03
204.25554	1.8191752E-03
204.72565	1.4753718E-03
205.19571	1.4138673E-03
205.66572	1.4272239E-03
206.13569	1.2899751E-03
206.60562	1.0943581E-03
207.07549	1.2460244E-03
207.54533	1.1862576E-03
208.01511	1.1651786E-03
208.48485	1.2732661E-03
208.95454	1.0857311E-03
209.42419	1.0646150E-03
209.89379	9.6238701E-04
210.36335	9.5549771E-04
210.83286	9.0645893E-04
211.30232	8.9738739E-04
211.77174	7.8205552E-04
212.24111	7.9562971E-04
212.71043	7.0916278E-04
213.17971	7.6639609E-04
213.64894	6.9786814E-04
214.11813	6.8898068E-04
214.58727	6.8950771E-04
215.05636	6.7021631E-04
215.52541	6.4109392E-04
215.99441	5.6496382E-04
216.46337	5.8880300E-04
216.93228	5.9369122E-04
217.40114	5.5737319E-04
217.86996	5.6164671E-04
218.33873	5.1397885E-04
218.80745	5.3738220E-04
219.27613	4.9245293E-04
219.74476	5.0895221E-04
220.21335	4.9691099E-04
220.68189	4.5942291E-04
221.15038	4.4687427E-04
221.61883	4.4289270E-04
222.08723	4.1451863E-04
222.55559	4.2106119E-04
223.02389	4.1979290E-04
223.49216	4.0244678E-04
223.96037	3.9448793E-04
224.42854	3.6527572E-04
224.89666	3.8520583E-04
225.36474	3.6503291E-04
225.83277	3.6339381E-04
226.30076	3.5349189E-04
226.76869	3.3856074E-04
227.23659	3.3023318E-04
227.70443	3.3291895E-04
228.17223	3.1542138E-04
228.63998	2.9775829E-04
229.10769	2.9195992E-04
229.57535	2.8540602E-04
230.04296	2.7554914E-04
230.51053	2.7398330E-04
230.97805	2.6730842E-04
231.44552	2.6115154E-04
231.91295	2.5245743E-04
232.38033	2.6222318E-04
232.84767	2.5646243E-04
233.31496	2.4751478E-04
233.78220	2.4528638E-04
234.24939	2.4501255E-04
234.71654	2.3582538E-04
235.18365	2.3895602E-04
235.65070	2.2992763E-04
236.11771	2.2941004E-04
236.58467	2.2794197E-04
237.05159	2.1892620E-04
237.51846	2.1662994E-04
237.98529	2.1806990E-04
238.45206	2.0855512E-04
238.91879	2.0929202E-04
239.38548	2.0250551E-04
239.85212	2.0582028E-04
240.31871	2.0477467E-04
240.78525	2.0402840E-04
241.25175	1.9851826E-04
241.71820	2.0092583E-04
242.18461	1.9571712E-04
242.65097	1.9471950E-04
243.11728	2.0471554E-04
243.58354	1.8756852E-04
244.04976	1.8481893E-04
244.51593	1.8229347E-04
244.98206	1.8090983E-04
245.44814	1.8056933E-04
245.91417	1.8206903E-04
246.38016	1.7707366E-04
246.84610	1.7337280E-04
247.31199	1.7324816E-04
247.77783	1.7414378E-04
248.24363	1.6861621E-04
248.70939	1.6809807E-04
249.17509	1.7061180E-04
249.64075	1.6771308E-04
250.10636	1.6570510E-04
250.57193	1.6347926E-04
251.03745	1.6076266E-04
251.50292	1.6296040E-04
251.96835	1.5828990E-04
252.43373	1.5961980E-04
252.89906	1.5743822E-04
253.36434	1.5446056E-04
253.82958	1.5503740E-04
254.29477	1.5647345E-04
254.75992	1.5705084E-04
255.22502	1.5622203E-04
255.69007	1.5653882E-04
256.15508	1.5609223E-04
256.62003	1.5574953E-04
257.08494	1.5308876E-04
257.54981	1.5000931E-04
258.01463	1.4748968E-04
258.47940	1.4444147E-04
258.94412	1.4555729E-04
259.40880	1.4066901E-04
259.87343	1.3765259E-04
260.33801	1.4242972E-04
260.80255	1.3674731E-04
261.26704	1.3994462E-04
261.73148	1.3983953E-04
262.19588	1.4086459E-04
262.66023	1.4273673E-04
263.12453	1.4092464E-04
263.58879	1.4010552E-04
264.05300	1.4130225E-04
264.51716	1.3988659E-04
264.98127	1.3771865E-04
265.44534	1.3780500E-04
265.90936	1.3520461E-04
266.37334	1.3437540E-04
266.83727	1.3019266E-04
267.30115	1.2998850E-04
267.76498	1.2720487E-04
268.22877	1.2837495E-04
268.69251	1.2988534E-04
269.15620	1.2992427E-04
269.61984	1.2879635E-04
270.08344	1.2916770E-04
270.54699	1.3005280E-04
271.01050	1.3209871E-04
271.47396	1.2964570E-04
271.93737	1.2689133E-04
272.40073	1.2771095E-04
272.86405	1.2666676E-04
273.32732	1.2436983E-04
273.79054	1.2388019E-04
274.25371	1.1951588E-04
274.71684	1.1932138E-04
275.17992	1.1898899E-04
275.64296	1.1354869E-04
276.10594	1.1150722E-04
276.56888	1.1064689E-04
277.03178	1.0975236E-04
277.49462	1.0753156E-04
277.95742	1.0645687E-04
278.42017	1.0511555E-04
278.88288	1.0480993E-04
279.34554	1.0540465E-04
279.80815	1.0527048E-04
280.27071	1.0302902E-04
280.73323	1.0306612E-04
281.19569	1.0179079E-04
281.65812	1.0094507E-04
282.12049	9.9562644E-05
282.58282	9.9683683E-05
283.04510	9.7646928E-05
283.50733	9.5078874E-05
283.96952	9.4293543E-05
284.43166	9.2710655E-05
284.89375	9.2036749E-05
285.35579	9.1166091E-05
285.81779	8.8821577E-05
286.27974	8.8109076E-05
286.74164	8.6299819E-05
287.20350	8.4742062E-05
287.66530	8.4977978E-05
288.12706	8.4467000E-05
288.58878	8.3988637E-05
289.05044	8.2894436E-05
289.51206	8.3100502E-05
289.97363	8.2730917E-05
290.43516	8.1313627E-05
290.89664	8.1801105E-05
291.35807	7.9909229E-05
291.81945	7.9202421E-05
292.28078	7.7950995E-05
292.74207	7.6912289E-05
293.20331	7.6162809E-05
293.66450	7.5473573E-05
294.12565	7.3609822E-05
294.58675	7.3491306E-05
295.04780	7.2609406E-05
295.50880	7.0651071E-05
295.96976	7.0347392E-05
296.43067	7.0565510E-05
296.89153	6.8887934E-05
297.35234	6.8414678E-05
297.81311	6.8142281E-05
298.27383	6.8540515E-05
298.73450	6.7776014E-05
299.19513	6.8198127E-05
299.65570	6.8589416E-05
300.11623	6.8612598E-05
300.57671	6.8090642E-05
301.03715	6.8500876E-05
301.49754	6.8751194E-05
301.95788	6.8195665E-05
302.41817	6.8456106E-05
302.87841	6.7731344E-05
303.33861	6.6580502E-05
303.79876	6.6348378E-05
304.25886	6.6621204E-05
304.71892	6.6276073E-05
305.17892	6.5307031E-05
305.63888	6.5353200E-05
306.09880	6.4212856E-05
306.55866	6.3953477E-05
307.01848	6.3011596E-05
307.47825	6.3123303E-05
307.93797	6.2258955E-05
308.39764	6.3274670E-05
308.85727	6.3287369E-05
309.31685	6.3470111E-05
309.77638	6.3159112E-05
310.23587	6.3513952E-05
310.69530	6.3902958E-05
311.15469	6.4271743E-05
311.61403	6.4098276E-05
312.07333	6.4039148E-05
312.53257	6.4042931E-05
312.99177	6.4299746E-05
313.45092	6.3633822E-05
313.91002	6.4661752E-05
314.36908	6.4408249E-05
314.82809	6.3456086E-05
315.28705	6.3531277E-05
315.74596	6.3813694E-05
316.20482	6.3409716E-05
316.66364	6.3068522E-05
317.12241	6.3246605E-05
317.58113	6.1860958E-05
318.03981	6.2928619E-05
318.49843	6.3065309E-05
318.95701	6.3519211E-05
319.41554	6.3960619E-05
319.87402	6.3046009E-05
320.33246	6.4213208E-05
320.79085	6.4621960E-05
321.24919	6.4799908E-05
321.70748	6.5762116E-05
322.16572	6.4777780E-05
322.62392	6.5882327E-05
323.08207	6.5695967E-05
323.54017	6.7111201E-05
323.99822	6.6442311E-05
324.45622	6.6172628E-05
324.91418	6.6751866E-05
325.37209	6.7142446E-05
325.82995	6.6996158E-05
326.28777	6.7573983E-05
326.74553	6.7462541E-05
327.20325	6.8020233E-05
327.66092	6.8667683E-05
328.11854	7.0042527E-05
328.57612	7.1036312E-05
329.03364	7.2064134E-05
329.49112	7.0582018E-05
329.94855	6.5864229E-05
330.40594	6.1699851E-05
330.86327	6.2925041E-05
331.32056	5.9582892E-05
331.77780	6.0699391E-05
332.23499	5.8767026E-05
332.69213	5.7593284E-05
333.14923	5.6529506E-05
333.60627	5.5764687E-05
334.06327	5.3634318E-05
334.52022	5.3178276E-05
334.97713	5.5210543E-05
335.43398	5.7368804E-05
335.89079	5.9520317E-05
336.34755	5.8843983E-05
336.80426	6.0024796E-05
337.26092	6.0609006E-05
337.71754	6.0670708E-05
338.17411	6.1093740E-05
338.63063	6.1390943E-05
339.08710	6.0929904E-05
339.54352	6.2620063E-05
339.99990	6.1587243E-05
340.45622	6.1319473E-05
340.91250	6.1652616E-05
341.36873	6.1931517E-05
341.82492	6.0709670E-05
342.28105	6.0851000E-05
342.73714	6.1537754E-05
343.19318	6.0748104E-05
343.64917	6.0197795E-05
344.10511	5.9702855E-05
344.56100	5.9321312E-05
345.01685	5.9126533E-05
345.47265	5.8536065E-05
345.92840	5.9144745E-05
346.38410	5.7893243E-05
346.83975	5.8275814E-05
347.29536	5.8384263E-05
347.75092	5.7510833E-05
348.20642	5.7508153E-05
348.66188	5.6899664E-05
349.11730	5.6945713E-05
349.57266	5.7889891E-05
350.02798	5.7167224E-05
350.48325	5.7505496E-05
350.93847	5.8184959E-05
351.39364	5.7367849E-05
351.84876	5.6938709E-05
352.30384	5.6812979E-05
352.75886	5.7097763E-05
353.21384	5.6023452E-05
353.66877	5.6791335E-05
354.12365	5.6088877E-05
354.57849	5.6120697E-05
355.03327	5.5366329E-05
355.48801	5.5474013E-05
355.94270	5.5024164E-05
356.39734	5.4619910E-05
356.85193	5.4011035E-05
357.30647	5.3672806E-05
357.76097	5.3070152E-05
358.21542	5.3012991E-05
358.66982	5.2414902E-05
359.12417	5.3491916E-05
359.57847	5.2943466E-05
360.03272	5.3076961E-05
360.48693	5.2909650E-05
360.94109	5.2588960E-05
361.39519	5.2772281E-05
361.84925	5.2667953E-05
362.30327	5.3630942E-05
362.75723	5.3548434E-05
363.21114	5.4276907E-05
363.66501	5.4562883E-05
364.11883	5.3684552E-05
364.57260	5.4504376E-05
365.02632	5.5020190E-05
365.47999	5.5405883E-05
365.93362	5.5419989E-05
366.38719	5.5673183E-05
366.84072	5.5975757E-05
367.29420	5.6061045E-05
367.74763	5.5860837E-05
368.20101	5.6042485E-05
368.65435	5.6339052E-05
369.10763	5.6672184E-05
369.56087	5.6417739E-05
370.01406	5.7251052E-05
370.46720	5.6531013E-05
370.92029	5.6249220E-05
371.37333	5.5787479E-05
371.82632	5.5088793E-05
372.27927	5.4151279E-05
372.73216	5.4632911E-05
373.18501	5.3883555E-05
373.63781	5.4079865E-05
374.09056	5.3413544E-05
374.54327	5.2827078E-05
374.99592	5.1700734E-05
375.44852	5.1824088E-05
375.90108	5.2403997E-05
376.35359	5.1275142E-05
376.80605	5.1493976E-05
377.25846	5.1517613E-05
377.71082	5.1984933E-05
378.16313	5.2450759E-05
378.61540	5.1898982E-05
379.06762	5.3337862E-05
379.51978	5.3326478E-05
379.97190	5.3085142E-05
380.42397	5.4227228E-05
380.87599	5.5598161E-05
381.32797	5.5106885E-05
381.77989	5.6655152E-05
382.23177	5.5988165E-05
382.68359	5.6474509E-05
383.13537	5.5846839E-05
383.58710	5.6276900E-05
384.03878	5.6446855E-05
384.49041	5.6362870E-05
384.94199	5.5561102E-05
385.39353	5.6030740E-05
385.84501	5.6124964E-05
386.29645	5.5763848E-05
386.74784	5.5005434E-05
387.19918	5.4862162E-05
387.65047	5.4621178E-05
388.10171	5.3207389E-05
388.55290	5.3799263E-05
389.00404	5.5296544E-05
389.45514	5.4204883E-05
389.90619	5.3810364E-05
390.35718	5.4151812E-05
390.80813	5.2972864E-05
391.25903	5.3544497E-05
391.70988	5.2909548E-05
392.16068	5.1961085E-05
392.61144	5.2238512E-05
393.06214	5.1148794E-05
393.51280	5.2295732E-05
393.96340	5.1213423E-05
394.41396	5.1721384E-05
394.86447	5.3133871E-05
395.31493	5.2231779E-05
395.76534	5.1946284E-05
396.21570	5.3405543E-05
396.66601	5.1710478E-05
397.11628	5.1855792E-05
397.56649	5.3486809E-05
398.01666	5.1641894E-05
398.46678	5.3832584E-05
398.91684	5.2972106E-05
399.36686	5.3281439E-05
399.81683	5.4071855E-05
400.26675	5.4831058E-05
400.71663	5.5876950E-05
401.16645	5.5383086E-05
401.61622	5.7028653E-05
402.06595	5.9121090E-05
402.51562	4.6949715E-05
402.96525	5.7819045E-05
403.41483	6.0179730E-05
403.86436	5.9774783E-05
404.31384	5.5503281E-05
404.76327	6.0700213E-05
405.21265	5.5706878E-05
405.66198	6.0933098E-05
406.11127	5.6330508E-05
406.56050	5.5631342E-05
407.00969	5.8396124E-05
407.45882	5.7162853E-05
407.90791	6.0075597E-05
408.35695	5.9215241E-05
408.80594	5.5783982E-05
409.25488	5.6023137E-05
409.70377	5.9028622E-05
410.15261	5.8589392E-05
410.60140	5.8311645E-05
411.05015	5.3078620E-05
411.49884	5.8224975E-05
411.94748	6.1190744E-05
412.39608	5.8555037E-05
412.84463	5.8632131E-05
413.29312	5.6471801E-05
413.74157	5.6425378E-05
414.18997	5.7543563E-05
414.63832	5.6297389E-05
415.08662	5.6998257E-05
415.53487	5.9232047E-05
415.98307	5.5486357E-05
416.43123	5.7132172E-05
416.87933	5.6723090E-05
417.32738	5.2632142E-05
417.77539	5.6304064E-05
418.22335	5.7453773E-05
418.67125	5.8273819E-05
419.11911	5.6129784E-05
419.56692	5.2991873E-05
420.01467	5.6972009E-05
420.46238	5.7149404E-05
420.91004	5.8631157E-05
421.35765	5.8576846E-05
421.80522	5.7539529E-05
422.25273	5.5260557E-05
422.70019	6.0006887E-05
423.14760	5.5959445E-05
423.59497	5.8315268E-05
424.04228	5.9270363E-05
424.48955	5.7668156E-05
424.93676	5.9425247E-05
425.38393	5.9337346E-05
425.83105	5.8749458E-05
426.27811	5.9096494E-05
426.72513	5.8675374E-05
427.17210	6.0103488E-05
427.61902	6.0516842E-05
428.06589	6.0140279E-05
428.51271	5.7545998E-05
428.95948	5.8493369E-05
429.40620	6.0295786E-05
429.85287	6.0422333E-05
430.29950	6.0174561E-05
430.74607	5.8986653E-05
431.19259	5.8638557E-05
431.63907	5.9751570E-05
432.08549	5.9058932E-05
432.53187	5.9146334E-05
432.97819	5.7810716E-05
433.42447	5.7724269E-05
433.87070	5.9600361E-05
434.31687	5.7513625E-05
434.76300	5.5811861E-05
435.20908	5.8202916E-05
435.65511	5.6600822E-05
436.10109	5.6197989E-05
436.54702	5.6417482E-05
436.99290	5.6766661E-05
437.43873	5.6363910E-05
437.88451	5.5645588E-05
438.33024	5.6704268E-05
438.77592	5.4882774E-05
439.22155	5.6119494E-05
439.66713	5.4774168E-05
440.11267	5.4462775E-05
440.55815	5.4393048E-05
441.00358	5.2671190E-05
441.44897	5.3073717E-05
441.89430	5.2243817E-05
442.33959	5.3849842E-05
442.78482	5.2607529E-05
443.23001	5.3536323E-05
443.67514	5.0324050E-05
444.12023	4.9975722E-05
444.56526	5.2256871E-05
445.01025	5.2863645E-05
445.45519	5.2727258E-05
445.90007	5.1982949E-05
446.34491	5.3454832E-05
446.78970	5.4084342E-05
447.23443	5.4567730E-05
447.67912	5.1943652E-05
448.12376	5.2216769E-05
448.56835	5.4722416E-05
449.01289	5.4412745E-05
449.45738	5.3815400E-05
449.90182	5.4876212E-05
450.34621	5.5201598E-05
450.79055	5.6074561E-05
451.23484	5.5330905E-05
451.67908	5.6695187E-05
452.12327	5.4525683E-05
452.56741	5.6086685E-05
453.01150	5.5704297E-05
453.45554	5.6419449E-05
453.89953	5.6044495E-05
454.34347	5.5870450E-05
454.78736	5.6596806E-05
455.23120	5.7190314E-05
455.67499	5.7965331E-05
456.11874	5.6967757E-05
456.56243	5.7808050E-05
457.00607	5.8014430E-05
457.44966	5.7574580E-05
457.89320	5.5380201E-05
458.33670	5.4378393E-05
458.78014	5.6977740E-05
459.22353	5.4858490E-05
459.66687	5.7026277E-05
460.11017	5.5574529E-05
460.55341	5.5359960E-05
460.99660	5.5973947E-05
461.43974	5.6536566E-05
461.88284	5.4635783E-05
462.32588	5.4697070E-05
462.76887	5.4158201E-05
463.21181	5.5039442E-05
463.65471	5.4560346E-05
464.09755	5.5120843E-05
464.54034	5.4115159E-05
464.98309	5.4386330E-05
465.42578	5.2462381E-05
465.86842	5.3645597E-05
466.31101	5.4101891E-05
466.75356	5.3752332E-05
467.19605	5.2271961E-05
467.63849	5.1012505E-05
468.08088	5.1189586E-05
468.52323	4.9379648E-05
468.96552	5.1559082E-05
469.40776	5.0524193E-05
469.84995	4.9914139E-05
470.29209	5.0723994E-05
470.73419	4.7281582E-05
471.17623	4.9414175E-05
471.61822	4.9057188E-05
472.06016	4.8067232E-05
472.50205	4.8400131E-05
472.94389	4.8451395E-05
473.38569	4.8017689E-05
473.82743	4.6019043E-05
474.26912	4.5485206E-05
474.71076	4.5986891E-05
475.15235	4.5764312E-05
475.59389	4.5063114E-05
476.03538	4.4845865E-05
476.47682	4.4422469E-05
476.91821	4.3601851E-05
477.35955	4.2996534E-05
477.80084	4.3679924E-05
478.24208	4.2107849E-05
478.68327	4.2244154E-05
479.12440	4.0594679E-05
479.56549	4.1107839E-05
480.00653	4.0864016E-05
480.44752	4.1167960E-05
480.88846	4.0563923E-05
481.32934	4.0759284E-05
481.77018	4.0600859E-05
482.21097	3.9940188E-05
482.65170	3.9938283E-05
483.09239	4.0169037E-05
483.53302	4.0573508E-05
483.97361	3.9630877E-05
484.41415	3.9551344E-05
484.85463	3.9965060E-05
485.29506	3.9257744E-05
485.73545	3.9064837E-05
486.17578	3.8773922E-05
486.61607	3.8322361E-05
487.05630	3.8534301E-05
487.49648	3.7769692E-05
487.93661	3.7231227E-05
488.37670	3.7416540E-05
488.81673	3.7161636E-05
489.25671	3.7292088E-05
489.69664	3.7571323E-05
490.13652	3.6732633E-05
490.57635	3.6840370E-05
491.01613	3.6034421E-05
491.45586	3.6668376E-05
491.89554	3.6634934E-05
492.33517	3.5960605E-05
492.77474	3.6061510E-05
493.21427	3.5665317E-05
493.65375	3.6419485E-05
494.09317	3.5418801E-05
494.53255	3.5405590E-05
494.97187	3.5349610E-05
495.41115	3.5192302E-05
495.85037	3.5328385E-05
496.28955	3.5253504E-05
496.72867	3.5288924E-05
497.16774	3.4991962E-05
497.60677	3.5309676E-05
498.04574	3.4591975E-05
498.48466	3.4803048E-05
498.92353	3.4892125E-05
499.36235	3.4654280E-05
499.80112	3.5068771E-05
500.23984	3.4680949E-05
500.67850	3.4446884E-05
501.11712	3.4455505E-05
501.55569	3.4726812E-05
501.99421	3.5050252E-05
502.43267	3.4540731E-05
502.87109	3.4701492E-05
503.30945	3.4411317E-05
503.74777	3.4419625E-05
504.18603	3.4790571E-05
504.62424	3.4176843E-05
505.06240	3.4192494E-05
505.50051	3.4773100E-05
505.93858	3.4563259E-05
506.37659	3.4874690E-05
506.81454	3.4876553E-05
507.25245	3.4758537E-05
507.69031	3.4308516E-05
508.12812	3.4889892E-05
508.56588	3.4597741E-05
509.00358	3.4523214E-05
509.44124	3.4555196E-05
509.87884	3.5022585E-05
510.31639	3.4748612E-05
510.75390	3.5158525E-05
511.19135	3.5177050E-05
511.62875	3.4971092E-05
512.06610	3.4729790E-05
512.50340	3.4534419E-05
512.94065	3.5025605E-05
513.37785	3.5499589E-05
513.81500	3.5133746E-05
514.25209	3.4845625E-05
514.68914	3.5212621E-05
515.12613	3.5866016E-05
515.56308	3.5815305E-05
515.99997	3.4949532E-05
516.43681	3.5285620E-05
516.87360	3.5533764E-05
517.31035	3.5749650E-05
517.74704	3.5373467E-05
518.18367	3.6347426E-05
518.62026	3.5746425E-05
519.05680	3.5973509E-05
519.49329	3.5983968E-05
519.92972	3.5980912E-05
520.36611	3.5431578E-05
520.80244	3.5860366E-05
521.23872	3.5784178E-05
521.67496	3.6222108E-05
522.11114	3.6221677E-05
522.54727	3.5935302E-05
522.98335	3.5989604E-05
523.41937	3.5719505E-05
523.85535	3.5947378E-05
524.29128	3.6086785E-05
524.72715	3.5638593E-05
525.16298	3.5921881E-05
525.59875	3.5397373E-05
526.03447	3.5786579E-05
526.47014	3.6192243E-05
526.90576	3.5626389E-05
527.34133	3.5949718E-05
527.77685	3.5768490E-05
528.21232	3.5757015E-05
528.64773	3.5689315E-05
529.08310	3.6224329E-05
529.51841	3.5863144E-05
529.95368	3.5630327E-05
530.38889	3.5814550E-05
530.82405	3.5776611E-05
531.25916	3.5534384E-05
531.69422	3.5794247E-05
532.12923	3.6174985E-05
532.56418	3.5960929E-05
532.99909	3.5595598E-05
533.43394	3.5687228E-05
533.86875	3.5580204E-05
534.30350	3.5356388E-05
534.73820	3.5803709E-05
535.17285	3.5812858E-05
535.60745	3.5469007E-05
536.04199	3.5968348E-05
536.47649	3.5438738E-05
536.91094	3.5606338E-05
537.34533	3.6125814E-05
537.77967	3.5580878E-05
538.21396	3.5450003E-05
538.64821	3.5753621E-05
539.08239	3.5814562E-05
539.51653	3.6121043E-05
539.95062	3.6079119E-05
540.38465	3.5976955E-05
540.81864	3.5974969E-05
541.25257	3.6831307E-05
541.68645	3.5887107E-05
542.12028	3.5667955E-05
542.55406	3.5510660E-05
542.98779	3.5695185E-05
543.42147	3.6073302E-05
543.85509	3.5972147E-05
544.28867	3.5589587E-05
544.72219	3.6051990E-05
545.15566	3.6052854E-05
545.58908	3.5546306E-05
546.02245	3.4820310E-05
546.45577	3.5157158E-05
546.88904	3.5503373E-05
547.32225	3.5211715E-05
547.75542	3.4949881E-05
548.18853	3.5090147E-05
548.62159	3.5179647E-05
549.05460	3.4916372E-05
549.48756	3.5048745E-05
549.92046	3.5205996E-05
550.35332	3.4895538E-05
550.78612	3.5314407E-05
551.21888	3.5095229E-05
551.65158	3.5971068E-05
552.08423	3.6319424E-05
552.51682	3.5534236E-05
552.94937	3.5885726E-05
553.38187	3.6268246E-05
553.81431	3.6877837E-05
554.24670	3.6781587E-05
554.67905	3.6601982E-05
555.11133	3.6973433E-05
555.54357	3.7090092E-05
555.97576	3.7255154E-05
556.40790	3.7644853E-05
556.83998	3.7797552E-05
557.27201	3.7281118E-05
557.70399	3.7298302E-05
558.13592	3.7911604E-05
558.56780	3.7580151E-05
558.99963	3.7824228E-05
559.43140	3.7553390E-05
559.86312	3.7781080E-05
560.29479	3.8231566E-05
560.72641	3.8698658E-05
561.15798	3.8035025E-05
561.58950	3.8582345E-05
562.02097	3.7999502E-05
562.45238	3.7993302E-05
562.88374	3.8785491E-05
563.31505	3.8706389E-05
563.74631	3.8569173E-05
564.17752	3.8536246E-05
564.60867	3.8833245E-05
565.03978	3.8187288E-05
565.47083	3.8632836E-05
565.90183	3.8906814E-05
566.33278	3.8906605E-05
566.76368	3.8516554E-05
567.19452	3.8854674E-05
567.62532	3.8558771E-05
568.05606	3.8247650E-05
568.48675	3.8114376E-05
568.91739	3.8861119E-05
569.34798	3.8804260E-05
569.77851	3.9146607E-05
570.20900	3.9197217E-05
570.63943	3.8421696E-05
571.06981	3.8181229E-05
571.50014	3.8734423E-05
571.93042	3.8989174E-05
572.36064	3.9240810E-05
572.79081	3.8543803E-05
573.22094	3.8724673E-05
573.65101	3.8129544E-05
574.08102	3.9248846E-05
574.51099	3.8708600E-05
574.94091	3.8641979E-05
575.37077	3.8733390E-05
575.80058	3.8570191E-05
576.23034	3.8808827E-05
576.66005	3.8693126E-05
577.08970	3.8812233E-05
577.51931	3.8820667E-05
577.94886	3.8661832E-05
578.37836	3.8933482E-05
578.80781	3.8942849E-05
579.23720	3.8375622E-05
579.66655	3.9049838E-05
580.09584	3.8688939E-05
580.52508	3.8786633E-05
580.95427	3.9248158E-05
581.38341	3.9284071E-05
581.81249	3.9163913E-05
582.24153	3.9144670E-05
582.67051	3.9336009E-05
583.09944	3.9226471E-05
583.52831	3.9270238E-05
583.95714	4.0073318E-05
584.38591	3.9408210E-05
584.81463	3.9282686E-05
585.24330	3.9679002E-05
585.67192	3.9495539E-05
586.10049	3.9246483E-05
586.52900	3.8782307E-05
586.95746	3.9747998E-05
587.38587	3.9519362E-05
587.81423	3.9594739E-05
588.24254	3.9386892E-05
588.67079	3.9900267E-05
589.09899	3.9804435E-05
589.52714	3.9740068E-05
589.95524	4.0043473E-05
590.38328	3.9797956E-05
590.81128	3.9860359E-05
591.23922	4.0202976E-05
591.66711	4.0450901E-05
592.09495	4.0457884E-05
592.52273	4.0357517E-05
592.95046	4.0463676E-05
593.37815	4.0251872E-05
593.80577	4.0508171E-05
594.23335	4.0440508E-05
594.66088	4.0976191E-05
595.08835	4.0678400E-05
595.51577	4.0929667E-05
595.94314	4.0848022E-05
596.37045	4.1038578E-05
596.79772	4.1355243E-05
597.22493	4.1045117E-05
597.65209	4.1616509E-05
598.07920	4.1754143E-05
598.50625	4.1118827E-05
598.93326	4.1044362E-05
599.36021	4.1257321E-05
599.78711	4.1218363E-05
600.21395	4.1586308E-05
600.64075	4.1349242E-05
601.06749	4.1883746E-05
601.49418	4.1891112E-05
601.92082	4.1763876E-05
602.34740	4.2024253E-05
602.77394	4.1651013E-05
603.20042	4.1155455E-05
603.62685	4.2089631E-05
604.05322	4.1587902E-05
604.47955	4.2477203E-05
604.90582	4.1913583E-05
605.33204	4.2183152E-05
605.75821	4.1809913E-05
606.18432	4.2081990E-05
606.61038	4.2487134E-05
607.03639	4.2249325E-05
607.46235	4.2859422E-05
607.88826	4.2617878E-05
608.31411	4.2187550E-05
608.73991	4.1935722E-05
609.16566	4.2212301E-05
609.59136	4.7525619E-05
610.01700	4.2462434E-05
610.44259	4.2728805E-05
610.86813	4.2587611E-05
611.29362	4.2404629E-05
611.71905	4.2563406E-05
612.14444	4.2320843E-05
612.56977	4.2857782E-05
612.99504	4.3502646E-05
613.42027	4.2930671E-05
613.84544	4.2794838E-05
614.27056	4.2896073E-05
614.69563	4.3120170E-05
615.12064	4.3216427E-05
615.54560	4.3169374E-05
615.97051	4.3444513E-05
616.39537	4.3473189E-05
616.82018	4.3429912E-05
617.24493	4.3504850E-05
617.66963	4.3446431E-05
618.09428	4.3704306E-05
618.51887	4.3547322E-05
618.94342	4.4146602E-05
619.36791	4.3462955E-05
619.79234	4.3633129E-05
620.21673	4.3707413E-05
620.64106	4.3681603E-05
621.06534	4.2514636E-05
621.48957	4.2992017E-05
621.91374	4.3357184E-05
622.33787	4.3200277E-05
622.76194	4.3938188E-05
623.18595	4.2182844E-05
623.60992	4.2427672E-05
624.03383	4.2326354E-05
624.45769	4.1585821E-05
624.88150	4.1629155E-05
625.30525	4.1646602E-05
625.72895	4.1278899E-05
626.15260	4.0781065E-05
626.57620	4.0435714E-05
626.99974	4.0059319E-05
627.42323	3.9959848E-05
627.84667	3.9771007E-05
628.27005	3.9508324E-05
628.69339	3.9826420E-05
629.11667	3.9621354E-05
629.53989	3.9450339E-05
629.96307	3.9294527E-05
630.38619	3.9298911E-05
630.80926	3.8785672E-05
631.23228	3.9487502E-05
631.65524	3.9712916E-05
632.07815	3.9305617E-05
632.50101	4.0521935E-05
632.92382	4.0242806E-05
633.34657	4.0099630E-05
633.76927	4.0627466E-05
634.19192	4.0716164E-05
634.61451	4.1037179E-05
635.03705	4.1384636E-05
635.45954	4.2100507E-05
635.88198	4.2101783E-05
636.30436	4.1870216E-05
636.72669	4.2255230E-05
637.14897	4.2494726E-05
637.57120	4.2302469E-05
637.99337	4.2625743E-05
638.41549	4.3409295E-05
638.83755	4.3675152E-05
639.25957	4.3464970E-05
639.68153	4.3565584E-05
640.10344	4.8792284E-05
640.52529	4.3850239E-05
640.94709	4.4725135E-05
641.36884	4.4425518E-05
641.79054	4.4798466E-05
642.21218	4.4929045E-05
642.63377	4.5478220E-05
643.05531	4.4773501E-05
643.47680	4.5196493E-05
643.89823	4.5085980E-05
644.31961	4.4856698E-05
644.74093	4.5147746E-05
645.16221	4.5974404E-05
645.58343	4.5888756E-05
646.00459	4.5715437E-05
646.42571	4.6113635E-05
646.84677	4.6389628E-05
647.26778	4.6065949E-05
647.68873	4.6703213E-05
648.10963	4.6358750E-05
648.53048	4.6722511E-05
648.95128	4.6593910E-05
649.37202	4.6559586E-05
649.79271	4.6976219E-05
650.21335	4.8156418E-05
650.63393	4.6992260E-05
651.05446	4.7267335E-05
651.47494	4.7741473E-05
651.89537	4.7661282E-05
652.31574	4.7056010E-05
652.73606	4.7518618E-05
653.15632	4.9800959E-05
653.57653	4.8182413E-05
653.99669	4.8060394E-05
654.41680	4.8026280E-05
654.83685	4.8493766E-05
655.25685	4.8993036E-05
655.67680	4.8315412E-05
656.09669	4.8587254E-05
656.51653	4.9136185E-05
656.93632	4.8637697E-05
657.35606	4.9231998E-05
657.77574	4.9042222E-05
658.19537	4.8846084E-05
658.61494	4.8922472E-05
659.03446	4.9362563E-05
659.45393	6.7526040E-05
659.87335	4.9275028E-05
660.29271	4.9835145E-05
660.71202	4.9720689E-05
661.13127	4.9610964E-05
661.55047	4.9823930E-05
661.96962	5.2028765E-05
662.38872	5.0038588E-05
662.80776	5.0134075E-05
663.22675	4.9940476E-05
663.64569	5.1607709E-05
664.06457	5.0038460E-05
664.48340	5.0360340E-05
664.90218	5.0528440E-05
665.32090	5.0826636E-05
665.73957	5.0693678E-05
666.15818	5.0722506E-05
666.57675	5.1242142E-05
666.99526	5.1057868E-05
667.41371	5.1038527E-05
667.83212	5.1390548E-05
668.25047	5.1358070E-05
668.66876	5.0933638E-05
669.08701	5.1642684E-05
669.50520	5.1177562E-05
669.92333	5.1280423E-05
670.34142	5.1879598E-05
670.75944	5.1709040E-05
671.17742	5.1787797E-05
671.59534	5.1715370E-05
672.01321	5.1719584E-05
672.43103	5.2328117E-05
672.84879	5.1854340E-05
673.26650	5.1635203E-05
673.68416	5.1838060E-05
674.10176	5.2684388E-05
674.51931	5.2384814E-05
674.93680	6.7814179E-05
675.35424	5.2523148E-05
675.77163	5.2293995E-05
676.18897	5.2958578E-05
676.60625	5.2982352E-05
677.02348	5.3125570E-05
677.44065	5.3061128E-05
677.85777	5.3368487E-05
678.27484	5.3846773E-05
678.69185	5.3190022E-05
679.10882	5.2776531E-05
679.52572	5.3537941E-05
679.94258	5.3228933E-05
680.35938	5.3560238E-05
680.77612	5.4347180E-05
681.19281	5.4087352E-05
681.60945	5.4341851E-05
682.02604	5.4374918E-05
682.44257	5.4848819E-05
682.85905	5.4966711E-05
683.27547	5.4675951E-05
683.69185	5.4844782E-05
684.10816	5.5081655E-05
684.52443	5.4925167E-05
684.94064	5.5219808E-05
685.35679	5.5184791E-05
685.77290	5.5313628E-05
686.18895	5.5295015E-05
686.60494	5.5624673E-05
687.02089	5.6114097E-05
687.43677	5.5500413E-05
687.85261	5.5910264E-05
688.26839	5.5464775E-05
688.68412	5.5908902E-05
689.09979	5.6788346E-05
689.51541	5.6250365E-05
689.93098	5.6522495E-05
690.34649	5.6055803E-05
690.76195	5.6211564E-05
691.17735	5.6530026E-05
691.59271	5.6183069E-05
692.00800	5.6223692E-05
692.42325	5.5918122E-05
692.83844	5.6389610E-05
693.25357	5.7039571E-05
693.66866	5.7508005E-05
694.08369	5.6781071E-05
694.49866	5.8074544E-05
694.91358	5.7387314E-05
695.32845	5.7445499E-05
695.74326	5.7505661E-05
696.15802	5.7469423E-05
696.57273	5.7703964E-05
696.98738	5.7471487E-05
697.40198	5.7963093E-05
697.81653	5.8049237E-05
698.23102	5.7308655E-05
698.64545	5.8706060E-05
699.05984	5.8146612E-05
699.47417	5.8427317E-05
699.88844	5.8930960E-05
700.30266	5.9161779E-05
700.71683	5.9071549E-05
701.13094	5.8483169E-05
701.54500	5.8868584E-05
701.95901	5.8981973E-05
702.37296	5.9321299E-05
702.78686	5.9712727E-05
703.20070	5.8760976E-05
703.61449	5.9629313E-05
704.02823	5.9717025E-05
704.44191	6.0240766E-05
704.85554	6.0322172E-05
705.26911	5.9561528E-05
705.68263	5.9954030E-05
706.09610	6.0246828E-05
706.50951	6.0393688E-05
706.92287	6.0389776E-05
707.33618	6.0718089E-05
707.74943	6.1334420E-05
708.16262	6.0960015E-05
708.57576	6.2291976E-05
708.98885	6.1018251E-05
709.40189	6.1010772E-05
709.81487	6.2306306E-05
710.22779	6.0866119E-05
710.64067	6.2275045E-05
711.05348	6.2273850E-05
711.46625	6.2070024E-05
711.87896	6.2254073E-05
712.29161	6.1655342E-05
712.70422	6.2443996E-05
713.11676	6.2579927E-05
713.52926	6.3321248E-05
713.94170	6.2688601E-05
714.35408	6.2638217E-05
714.76641	6.3487244E-05
715.17869	6.3506094E-05
715.59091	6.3568953E-05
716.00308	6.3212200E-05
716.41520	6.3737216E-05
716.82726	6.3986187E-05
717.23926	6.3804678E-05
717.65121	6.3918325E-05
718.06311	6.4684462E-05
718.47496	6.4159925E-05
718.88674	6.4250964E-05
719.29848	6.4848478E-05
719.71016	6.4444057E-05
720.12179	6.4036449E-05
720.53336	6.3941263E-05
720.94488	6.4351760E-05
721.35634	6.4058362E-05
721.76775	6.3944710E-05
722.17911	6.4159178E-05
722.59041	6.3742979E-05
723.00166	6.3166979E-05
723.41285	6.3152205E-05
723.82399	6.3482535E-05
724.23507	6.3548391E-05
724.64610	6.2748008E-05
725.05708	6.2918247E-05
725.46800	6.2943410E-05
725.87887	6.2969085E-05
726.28968	6.2442411E-05
726.70044	6.3148726E-05
727.11114	6.2975566E-05
727.52179	6.2869365E-05
727.93239	6.3578401E-05
728.34293	6.4564486E-05
728.75341	6.3937890E-05
729.16385	6.5197139E-05
729.57422	6.5719138E-05
729.98455	6.6187812E-05
730.39482	6.6499573E-05
730.80503	6.6154262E-05
731.21519	7.0527463E-05
731.62530	6.7527061E-05
732.03535	6.8177314E-05
732.44535	6.8345133E-05
732.85529	6.8660740E-05
733.26518	6.8763310E-05
733.67501	6.9348264E-05
734.08479	6.9592479E-05
734.49451	7.0125727E-05
734.90418	7.0551403E-05
735.31380	6.9952662E-05
735.72336	7.0405978E-05
736.13287	7.0672994E-05
736.54232	7.2651810E-05
736.95172	7.1050277E-05
737.36106	7.2208249E-05
737.77035	7.1635078E-05
738.17958	7.1770805E-05
738.58876	7.2755775E-05
738.99789	7.2724353E-05
739.40696	7.3505429E-05
739.81597	7.3897616E-05
740.22494	7.3583341E-05
740.63384	7.3932194E-05
741.04269	7.4398358E-05
741.45149	7.4894888E-05
741.86024	7.4317571E-05
742.26892	7.4108296E-05
742.67756	7.5276241E-05
743.08614	7.5237683E-05
743.49466	7.5512356E-05
743.90313	7.6234305E-05
744.31155	7.5130232E-05
744.71991	7.5898283E-05
745.12821	7.6217351E-05
745.53646	7.5157536E-05
745.94466	7.6325502E-05
746.35280	7.6798362E-05
746.76089	7.6806190E-05
747.16892	7.8924926E-05
747.57690	7.7473530E-05
747.98482	7.8003231E-05
748.39269	7.6797875E-05
748.80051	7.8184856E-05
749.20827	7.7941395E-05
749.61597	7.8439224E-05
750.02362	7.9065197E-05
750.43122	7.8728724E-05
750.83876	8.0017206E-05
751.24624	8.0370339E-05
751.65367	8.0351758E-05
752.06105	7.9721090E-05
752.46837	7.9667345E-05
752.87564	8.0790596E-05
753.28285	8.0100637E-05
753.69000	8.0698116E-05
754.09711	8.2168934E-05
754.50415	8.1705404E-05
754.91115	8.1539534E-05
755.31808	8.1925990E-05
755.72497	8.2089617E-05
756.13179	8.2982201E-05
756.53857	8.2522508E-05
756.94528	8.2317668E-05
757.35195	8.2265824E-05
757.75856	8.2084993E-05
758.16511	8.4596999E-05
758.57161	8.3937276E-05
758.97805	8.3882949E-05
759.38444	8.3834947E-05
759.79077	8.4770951E-05
760.19705	8.4341942E-05
760.60328	8.4148005E-05
761.00945	8.4566330E-05
761.41556	8.5096426E-05
761.82162	8.4125252E-05
762.22762	8.4938310E-05
762.63357	8.5462178E-05
763.03947	8.6224874E-05
763.44531	8.5710290E-05
763.85109	8.5778833E-05
764.25682	8.5854448E-05
764.66250	8.6815793E-05
765.06812	8.7365905E-05
765.47368	8.7639007E-05
765.87919	8.7355393E-05
766.28464	9.2131977E-05
766.69004	8.7061370E-05
767.09539	8.7743188E-05
767.50068	8.9447161E-05
767.90591	8.8616153E-05
768.31109	8.9328908E-05
768.71622	8.8602219E-05
769.12129	8.9197041E-05
769.52630	8.9690573E-05
769.93126	8.9658943E-05
770.33616	9.0801602E-05
770.74101	9.0474486E-05
771.14581	8.8249198E-05
771.55054	9.0710828E-05
771.95523	9.1203751E-05
772.35986	9.2074596E-05
772.76443	9.0747266E-05
773.16895	9.1706432E-05
773.57341	9.2380094E-05
773.97782	9.1819127E-05
774.38217	9.0987451E-05
774.78647	9.2040815E-05
775.19071	9.2897912E-05
775.59490	9.3275269E-05
775.99903	9.3603256E-05
776.40311	9.3789973E-05
776.80713	9.3217179E-05
777.21109	9.3638697E-05
777.61501	9.3356284E-05
778.01886	9.5260673E-05
778.42266	9.5127713E-05
778.82641	9.5324654E-05
779.23010	9.4493976E-05
779.63373	9.3920051E-05
780.03731	9.6398689E-05
780.44084	9.5960809E-05
780.84431	9.7008833E-05
781.24772	9.6818174E-05
781.65108	9.6856434E-05
782.05438	9.8169861E-05
782.45763	9.7159377E-05
782.86082	9.7429860E-05
783.26396	9.7960596E-05
783.66704	1.0363015E-04
784.07007	9.7370932E-05
784.47304	9.8386282E-05
784.87596	9.7672840E-05
785.27882	9.9078149E-05
785.68162	9.8935355E-05
786.08437	1.0044954E-04
786.48707	1.0035960E-04
786.88971	9.9972286E-05
787.29229	1.0207633E-04
787.69482	1.0066845E-04
788.09729	9.9384106E-05
788.49971	1.0143375E-04
788.90207	1.0294145E-04
789.30438	1.0215124E-04
789.70663	1.0198880E-04
790.10883	1.0257483E-04
790.51097	1.0346891E-04
790.91305	1.0373124E-04
791.31508	1.0288187E-04
791.71706	1.0349203E-04
792.11898	1.0399136E-04
792.52084	1.0336499E-04
792.92265	1.0489226E-04
793.32440	1.0555161E-04
793.72610	1.0558951E-04
794.12774	1.0543280E-04
794.52932	1.0789441E-04
794.93086	1.0645945E-04
795.33233	1.0686898E-04
795.73375	1.0752787E-04
796.13511	1.0675048E-04
796.53642	1.0621611E-04
796.93767	1.1316884E-04
797.33887	1.0720329E-04
797.74001	1.0903082E-04
798.14110	1.0924898E-04
798.54213	1.1003073E-04
798.94310	1.1017848E-04
799.34402	1.0958426E-04
799.74489	1.1015692E-04
800.14569	1.1158671E-04
800.54645	1.1090788E-04
800.94714	1.1201710E-04
801.34778	1.1536855E-04
801.74837	1.1296831E-04
802.14890	1.1186067E-04
802.54937	1.1376458E-04
802.94979	1.1328296E-04
803.35015	1.1375213E-04
803.75046	1.1922671E-04
804.15071	1.1626446E-04
804.55091	1.1559291E-04
804.95105	1.1427872E-04
805.35113	1.1607988E-04
805.75116	1.1997284E-04
806.15114	1.2213889E-04
806.55105	1.1733878E-04
806.95091	1.1731265E-04
807.35072	1.1718308E-04
807.75047	1.1771988E-04
808.15016	1.1819668E-04
808.54980	1.1897149E-04
808.94939	1.1991087E-04
809.34891	1.1975453E-04
809.74838	1.1853798E-04
810.14780	1.2163415E-04
810.54716	1.2035786E-04
810.94646	1.2328410E-04
811.34571	1.2260717E-04
811.74490	1.2346283E-04
812.14404	1.2438920E-04
812.54312	1.2242675E-04
812.94215	1.2424897E-04
813.34111	1.2352697E-04
813.74003	1.2532266E-04
814.13888	1.2560223E-04
814.53769	1.2499199E-04
814.93643	1.2647697E-04
815.33512	1.2693578E-04
815.73375	1.2661325E-04
816.13233	1.2732527E-04
816.53085	1.2951066E-04
816.92932	1.3753721E-04
817.32773	1.3528771E-04
817.72608	1.3058737E-04
818.12438	1.3027775E-04
818.52263	1.3146251E-04
818.92081	1.3266837E-04
819.31894	1.3161455E-04
819.71702	1.3213088E-04
820.11504	1.3226056E-04
820.51300	1.3338528E-04
820.91090	1.3396016E-04
821.30876	1.3424087E-04
821.70655	1.3307882E-04
822.10429	1.3381704E-04
822.50197	1.3500710E-04
822.89960	1.3512625E-04
823.29717	1.3691178E-04
823.69468	1.3690241E-04
824.09214	1.3822008E-04
824.48954	1.3989381E-04
824.88689	1.3742455E-04
825.28418	1.3865267E-04
825.68142	1.3975175E-04
826.07859	1.4128926E-04
826.47572	1.4125315E-04
826.87278	1.4143565E-04
827.26979	1.4213581E-04
827.66675	1.4234704E-04
828.06364	1.4270768E-04
828.46049	1.4257672E-04
828.85727	1.4160971E-04
829.25400	1.4496757E-04
829.65067	1.4974132E-04
830.04729	1.4355872E-04
830.44385	1.4584852E-04
830.84036	1.4619091E-04
831.23681	1.4676612E-04
831.63320	1.4559346E-04
832.02954	1.4658404E-04
832.42582	1.4764147E-04
832.82204	1.4869126E-04
833.21821	1.4735267E-04
833.61432	1.4977974E-04
834.01037	1.5132269E-04
834.40637	1.5177342E-04
834.80232	1.4807063E-04
835.19820	1.5328099E-04
835.59403	1.5301555E-04
835.98981	1.5294484E-04
836.38553	1.5340075E-04
836.78119	1.5038007E-04
837.17679	1.5414701E-04
837.57234	1.5508048E-04
837.96784	1.5500947E-04
838.36327	1.5616787E-04
838.75865	1.5415762E-04
839.15398	1.5643741E-04
839.54925	1.5720321E-04
839.94446	1.5697631E-04
840.33961	1.5765618E-04
840.73471	1.5695304E-04
841.12975	1.5828103E-04
841.52474	1.5899673E-04
841.91967	1.5916391E-04
842.31454	1.5883341E-04
842.70936	1.5851611E-04
843.10412	1.5958005E-04
843.49883	1.6112682E-04
843.89347	1.6218552E-04
844.28806	1.6465048E-04
844.68260	1.6221015E-04
845.07708	1.6340176E-04
845.47150	1.6293652E-04
845.86587	1.7067539E-04
846.26018	1.6696074E-04
846.65443	1.6571145E-04
847.04863	1.6504462E-04
847.44277	1.6636929E-04
847.83685	1.6712620E-04
848.23088	1.6816615E-04
848.62485	1.6641525E-04
849.01876	1.6844466E-04
849.41262	1.6971931E-04
849.80642	1.7154734E-04
850.20017	1.6932599E-04
850.59386	1.7201994E-04
850.98749	1.6990746E-04
851.38106	1.7027173E-04
851.77458	1.6930106E-04
852.16804	1.7118816E-04
852.56145	1.7275713E-04
852.95480	1.7815585E-04
853.34809	1.7251875E-04
853.74133	1.7418882E-04
854.13451	1.7366606E-04
854.52763	1.7307865E-04
854.92070	1.8262817E-04
855.31371	1.7520510E-04
855.70666	1.7765261E-04
856.09956	1.7884777E-04
856.49240	1.7648479E-04
856.88518	1.7906867E-04
857.27791	1.7764702E-04
857.67058	1.7976842E-04
858.06319	1.7901174E-04
858.45575	1.8078058E-04
858.84825	1.7806742E-04
859.24069	1.7987171E-04
859.63308	1.8017502E-04
860.02541	1.8074382E-04
860.41768	1.8417613E-04
860.80990	1.8250012E-04
861.20206	1.8186297E-04
861.59416	1.8342551E-04
861.98621	1.8375714E-04
862.37820	1.8622759E-04
862.77013	1.8570338E-04
863.16201	1.8747590E-04
863.55383	1.8653454E-04
863.94559	1.8610288E-04
864.33730	1.9096059E-04
864.72895	1.8815381E-04
865.12054	1.9026356E-04
865.51208	1.9375146E-04
865.90355	1.9054408E-04
866.29498	1.9938084E-04
866.68634	1.8715838E-04
867.07765	1.9247079E-04
867.46890	1.9297110E-04
867.86010	1.9330257E-04
868.25124	1.9565354E-04
868.64232	1.9319327E-04
869.03334	1.9437842E-04
869.42431	1.9661324E-04
869.81522	1.9735374E-04
870.20608	1.9781957E-04
870.59687	1.9842916E-04
870.98762	1.9937538E-04
871.37830	1.9946007E-04
871.76893	1.9880426E-04
872.15950	1.9919464E-04
872.55001	1.9977471E-04
872.94046	2.0167029E-04
873.33086	2.0691487E-04
873.72121	2.0419300E-04
874.11149	2.0482837E-04
874.50172	2.0652256E-04
874.89189	2.0647177E-04
875.28201	2.0859947E-04
875.67206	2.0737322E-04
876.06206	2.1099937E-04
876.45201	2.0652035E-04
876.84189	2.0641492E-04
877.23172	2.1153767E-04
877.62150	2.0927772E-04
878.01121	2.1411103E-04
878.40087	2.1338131E-04
878.79047	2.1402635E-04
879.18002	2.1696529E-04
879.56950	2.2667627E-04
879.95893	2.1637104E-04
880.34831	2.1361158E-04
880.73762	2.1749874E-04
881.12688	2.1611155E-04
881.51609	2.1801655E-04
881.90523	2.1541754E-04
882.29432	2.1555963E-04
882.68335	2.1718476E-04
883.07232	2.1765967E-04
883.46124	2.1772473E-04
883.85010	2.1984469E-04
884.23890	2.2200977E-04
884.62765	2.2116029E-04
885.01634	2.2061481E-04
885.40497	2.1911097E-04
885.79354	2.2270320E-04
886.18206	2.2011293E-04
886.57052	2.2286282E-04
886.95892	2.4535955E-04
887.34727	2.2569689E-04
887.73556	2.2527825E-04
888.12379	2.2546278E-04
888.51196	2.2602441E-04
888.90008	2.2414032E-04
889.28814	2.2672609E-04
889.67614	2.2764609E-04
890.06409	2.2890871E-04
890.45198	2.2921383E-04
890.83981	2.2885465E-04
891.22758	2.3048843E-04
891.61530	2.3042645E-04
892.00295	2.3047197E-04
892.39056	2.3057348E-04
892.77810	2.3164858E-04
893.16559	2.3438624E-04
893.55302	2.3137513E-04
893.94039	2.3363544E-04
894.32771	2.3745662E-04
894.71496	2.3689417E-04
895.10217	2.3682005E-04
895.48931	2.3492229E-04
895.87639	2.3707085E-04
896.26342	2.4119097E-04
896.65040	2.4012735E-04
897.03731	2.4038035E-04
897.42417	2.3980832E-04
897.81097	2.4239332E-04
898.19771	2.4347839E-04
898.58439	2.4384139E-04
898.97102	2.4195817E-04
899.35759	2.4627446E-04
899.74410	2.4625390E-04
900.13056	2.4771496E-04
900.51696	2.4740382E-04
900.90330	2.4786113E-04
901.28958	2.5179163E-04
901.67580	2.5106089E-04
902.06197	2.5468814E-04
902.44808	2.5612254E-04
902.83414	2.5638763E-04
903.22013	2.7236417E-04
903.60607	2.5492449E-04
903.99195	2.6094590E-04
904.37777	2.5864390E-04
904.76354	2.6133533E-04
905.14925	2.6026715E-04
905.53490	2.6021364E-04
905.92049	2.6417963E-04
906.30603	2.6787255E-04
906.69151	2.6538140E-04
907.07693	2.6684476E-04
907.46229	2.6734249E-04
907.84760	2.6953379E-04
908.23284	2.6832465E-04
908.61804	2.7069840E-04
909.00317	2.7243597E-04
909.38824	2.7222740E-04
909.77326	2.7389644E-04
910.15822	2.7331967E-04
910.54312	2.8003247E-04
910.92797	2.7532782E-04
911.31276	2.7746940E-04
911.69749	2.8036536E-04
912.08216	2.8392732E-04
912.46677	2.8118701E-04
912.85133	2.8196760E-04
913.23583	2.9800721E-04
913.62027	2.8646860E-04
914.00466	2.8563400E-04
914.38898	2.8836858E-04
914.77325	2.9456109E-04
915.15746	2.9258912E-04
915.54162	2.9425251E-04
915.92571	2.9536633E-04
916.30975	2.9045805E-04
916.69373	2.9681736E-04
917.07765	2.9881307E-04
917.46152	3.0223173E-04
917.84533	3.0103070E-04
918.22907	3.0736558E-04
918.61277	3.3353463E-04
918.99640	3.0557539E-04
919.37998	3.0648859E-04
919.76350	3.0954116E-04
920.14696	3.1436107E-04
920.53036	3.1425525E-04
920.91370	3.1809137E-04
921.29699	3.1542884E-04
921.68022	3.1893536E-04
922.06339	3.1834973E-04
922.44651	3.2499685E-04
922.82956	3.2829821E-04
923.21256	3.2870846E-04
923.59550	3.3499594E-04
923.97838	3.3391634E-04
924.36121	3.3516541E-04
924.74398	3.4427740E-04
925.12669	3.4532432E-04
925.50934	3.4974683E-04
925.89193	3.5134827E-04
926.27447	3.5230021E-04
926.65694	3.5872671E-04
927.03936	3.6115557E-04
927.42173	3.6112607E-04
927.80403	3.6780666E-04
928.18628	3.6495058E-04
928.56846	3.6585953E-04
928.95059	3.6386505E-04
929.33267	3.6509580E-04
929.71468	3.7312777E-04
930.09664	3.8137441E-04
930.47853	3.6302369E-04
930.86038	3.6797535E-04
931.24216	3.6506117E-04
931.62388	3.6730615E-04
932.00555	3.6897121E-04
932.38716	3.6014376E-04
932.76871	3.5702762E-04
933.15020	3.4968678E-04
933.53163	3.5066031E-04
933.91301	3.5403374E-04
934.29433	3.4992678E-04
934.67559	3.4060417E-04
935.05679	3.4757255E-04
935.43794	3.4726781E-04
935.81902	3.4451887E-04
936.20005	3.4502877E-04
936.58102	3.4345905E-04
936.96193	3.3034610E-04
937.34279	3.5381027E-04
937.72358	3.5799381E-04
938.10432	3.5979258E-04
938.48500	3.6550127E-04
938.86562	3.6712037E-04
939.24619	3.7949391E-04
939.62669	3.8656040E-04
940.00714	3.9335652E-04
940.38753	4.0272797E-04
940.76786	4.0461782E-04
941.14813	4.2301295E-04
941.52835	4.3047134E-04
941.90850	4.4412329E-04
942.28860	4.5173475E-04
942.66864	4.5829642E-04
943.04862	4.7153776E-04
943.42855	4.7312579E-04
943.80841	4.8595569E-04
944.18822	4.9491672E-04
944.56797	5.0635972E-04
944.94766	5.1033218E-04
945.32729	5.0679802E-04
945.70687	5.1753256E-04
946.08638	5.2373700E-04
946.46584	5.3094532E-04
946.84524	5.2730254E-04
947.22458	5.4214736E-04
947.60387	5.4543380E-04
947.98309	5.3879511E-04
948.36226	5.6848219E-04
948.74137	5.5469621E-04
949.12042	5.5146415E-04
949.49941	5.5694867E-04
949.87834	5.6179678E-04
950.25722	5.5437088E-04
950.63603	5.6449601E-04
951.01479	5.6181677E-04
951.39349	5.6888438E-04
951.77213	5.6829776E-04
952.15072	5.7018044E-04
952.52924	5.6523944E-04
952.90771	5.6106049E-04
953.28612	5.6844544E-04
953.66446	5.5650771E-04
954.04276	5.7310328E-04
954.42099	5.5884379E-04
954.79916	5.7077271E-04
955.17728	5.8485670E-04
955.55534	5.7444546E-04
955.93334	6.0174194E-04
956.31128	5.7200559E-04
956.68916	5.7055776E-04
957.06698	5.7194529E-04
957.44475	5.6557955E-04
957.82246	5.7273241E-04
958.20011	5.4549795E-04
958.57770	5.5368692E-04
958.95523	5.7423732E-04
959.33270	5.7142821E-04
959.71012	5.7215627E-04
960.08747	5.7676843E-04
960.46477	5.7530224E-04
960.84201	5.8397323E-04
961.21919	5.8356794E-04
961.59631	5.9300703E-04
961.97338	6.0150113E-04
962.35038	5.9582741E-04
962.72733	6.0082283E-04
963.10421	5.8155250E-04
963.48104	5.9205681E-04
963.85781	5.9356022E-04
964.23453	5.9732252E-04
964.61118	5.9745049E-04
964.98778	6.0576852E-04
965.36431	6.1448423E-04
965.74079	6.0631195E-04
966.11721	5.9893696E-04
966.49357	6.1044035E-04
966.86987	6.1200312E-04
967.24611	6.3206062E-04
967.62230	6.1881136E-04
967.99843	6.2510212E-04
968.37449	6.1216701E-04
968.75050	6.2728763E-04
969.12645	6.2818263E-04
969.50234	6.2997192E-04
969.87818	6.3431617E-04
970.25395	6.4186575E-04
970.62966	6.4582411E-04
971.00532	6.3603135E-04
971.38092	6.5206391E-04
971.75646	6.5306186E-04
972.13194	6.4839700E-04
972.50736	6.5042321E-04
972.88272	6.6997829E-04
973.25803	6.6069082E-04
973.63327	6.5804862E-04
974.00846	6.6719944E-04
974.38359	6.7012429E-04
974.75865	6.9356205E-04
975.13367	6.7341130E-04
975.50862	6.8128413E-04
975.88351	6.8971262E-04
976.25834	6.8244028E-04
976.63312	6.9371818E-04
977.00783	6.7036261E-04
977.38249	6.8192795E-04
977.75709	7.0021438E-04
978.13163	7.1361824E-04
978.50611	7.0520890E-04
978.88053	7.0685009E-04
979.25490	7.1266027E-04
979.62920	7.1420462E-04
980.00345	7.4958606E-04
980.37763	7.4418224E-04
980.75176	7.2805264E-04
981.12583	7.3005633E-04
981.49984	7.3471812E-04
981.87379	7.4766729E-04
982.24768	7.4581438E-04
982.62151	7.6884713E-04
982.99529	7.3703658E-04
983.36900	7.4254207E-04
983.74266	7.5658593E-04
984.11626	7.5421740E-04
984.48979	7.7445630E-04
984.86327	7.7027775E-04
985.23669	7.7911897E-04
985.61006	7.9459303E-04
985.98336	7.7933537E-04
986.35660	7.9233620E-04
986.72979	8.0137574E-04
987.10291	8.0459776E-04
987.47598	8.0857589E-04
987.84898	8.1204533E-04
988.22193	7.9968319E-04
988.59482	8.2430188E-04
988.96765	8.1645204E-04
989.34042	8.2000958E-04
989.71314	8.4487096E-04
990.08579	8.4852190E-04
990.45838	8.4066345E-04
990.83092	8.2608636E-04
991.20339	8.9365562E-04
991.57581	8.6528158E-04
991.94817	8.7152808E-04
992.32047	8.6230908E-04
992.69270	8.5640129E-04
993.06488	8.6475126E-04
993.43701	8.9306069E-04
993.80907	8.9090966E-04
994.18107	9.0923683E-04
994.55301	9.0841876E-04
994.92490	9.2525672E-04
995.29672	9.4200968E-04
995.66849	9.4071189E-04
996.04020	9.1425139E-04
996.41184	9.2373830E-04
996.78343	9.4357049E-04
997.15496	9.3287950E-04
997.52643	9.2170847E-04
997.89784	9.8961207E-04
998.26920	9.5128184E-04
998.64049	9.7978706E-04
999.01172	9.8570087E-04
999.38289	9.7913111E-04
999.75401	9.7541393E-04
1000.12506	9.8942081E-04
1000.49606	9.9906742E-04
1000.86700	1.0005018E-03
1001.23788	1.0440608E-03
1001.60869	1.0154577E-03
1001.97945	1.0653964E-03
1002.35015	1.0248132E-03
1002.72079	1.0446607E-03
1003.09137	1.0477730E-03
1003.46190	1.0254789E-03
1003.83236	1.0934994E-03
1004.20276	1.0450011E-03
1004.57311	1.0366344E-03
1004.94339	1.0775921E-03
1005.31362	1.1039353E-03
1005.68378	1.0710678E-03
1006.05389	1.0534442E-03
1006.42393	1.1198830E-03
1006.79392	1.1267167E-03
1007.16385	1.1497017E-03
1007.53372	1.1440616E-03
1007.90353	1.1421109E-03
1008.27328	1.1310416E-03
1008.64297	1.1675296E-03
1009.01260	1.1452629E-03
1009.38217	1.1408534E-03
1009.75168	1.2184938E-03
1010.12114	1.2401202E-03
1010.49053	1.1920170E-03
1010.85986	1.2188894E-03
1011.22914	1.2363618E-03
1011.59835	1.1751508E-03
1011.96751	1.2508729E-03
1012.33660	1.2878536E-03
1012.70564	1.2523138E-03
1013.07462	1.2517977E-03
1013.44354	1.2900408E-03
1013.81239	1.2663965E-03
1014.18119	1.2983334E-03
1014.54993	1.3015674E-03
1014.91861	1.3617037E-03
1015.28723	1.3147936E-03
1015.65579	1.3705047E-03
1016.02429	1.3633548E-03
1016.39273	1.3734140E-03
1016.76111	1.4024831E-03
1017.12944	1.4091804E-03
1017.49770	1.4296363E-03
1017.86590	1.4197978E-03
1018.23404	1.4234697E-03
1018.60213	1.4284449E-03
1018.97015	1.4195775E-03
1019.33812	1.4795952E-03
1019.70602	1.4527491E-03
1020.07387	1.5718464E-03
1020.44165	1.4286747E-03
1020.80938	1.5089529E-03
1021.17704	1.4069719E-03
1021.54465	1.4884084E-03
1021.91220	1.4653716E-03
1022.27968	1.5315933E-03
1022.64711	1.5510997E-03
1023.01448	1.5875983E-03
1023.38179	1.6072613E-03
1023.74903	1.5868223E-03
1024.11622	1.6311064E-03
1024.48335	1.7206110E-03
1024.85042	1.6745178E-03
1025.21743	1.6524565E-03
1025.58438	1.7091701E-03
1025.95127	1.6725608E-03
1026.31810	1.7474939E-03
1026.68487	1.7159778E-03
1027.05158	1.7947547E-03
1027.41823	1.7485218E-03
1027.78482	1.6888584E-03
1028.15135	1.8411072E-03
1028.51782	1.9290992E-03
1028.88424	1.7699472E-03
1029.25059	1.8114363E-03
1029.61688	1.9563682E-03
1029.98311	1.9300680E-03
1030.34928	1.9876277E-03
1030.71540	1.8031684E-03
1031.08145	1.8132717E-03
1031.44744	1.9520506E-03
1031.81337	1.9429006E-03
1032.17925	2.0084687E-03
1032.54506	1.9360662E-03
1032.91081	2.1259804E-03
1033.27651	2.0618777E-03
1033.64214	2.0719713E-03
1034.00771	2.0454861E-03
1034.37323	2.1036205E-03
1034.73868	2.1334413E-03
1035.10407	2.1812072E-03
1035.46941	2.1460316E-03
1035.83468	2.1125574E-03
1036.19990	2.2339516E-03
1036.56505	2.3782311E-03
1036.93014	2.3380409E-03
1037.29518	2.4300145E-03
1037.66015	2.2718204E-03
1038.02507	2.3371319E-03
1038.38992	2.3493636E-03
1038.75471	2.5181029E-03
1039.11945	2.4287837E-03
1039.48412	2.3172185E-03
1039.84874	2.3595063E-03
1040.21329	2.4917202E-03
1040.57778	2.5020287E-03
1040.94222	2.3931228E-03
1041.30659	2.5346245E-03
1041.67091	2.5975813E-03
1042.03516	2.5627016E-03
1042.39935	2.4357158E-03
1042.76349	2.6492929E-03
1043.12756	2.5947727E-03
1043.49157	2.6739656E-03
1043.85553	2.6898838E-03
1044.21942	2.4674193E-03
1044.58325	2.7028690E-03
1044.94703	2.7267766E-03
1045.31074	2.9127933E-03
1045.67439	2.6782880E-03
1046.03798	2.9881728E-03
1046.40152	3.2717974E-03
1046.76499	3.1139074E-03
1047.12840	2.9407993E-03
1047.49175	3.1414875E-03
1047.85505	2.9952915E-03
1048.21828	2.9137873E-03
1048.58145	2.9885640E-03
1048.94456	3.0032059E-03
1049.30761	3.1771926E-03
1049.67060	3.1499435E-03
1050.03353	2.8683856E-03
1050.39640	3.2204532E-03
1050.75921	3.4726507E-03
1051.12196	3.2751573E-03
1051.48465	3.2965227E-03
1051.84728	3.3450047E-03
1052.20985	3.3658129E-03
1052.57236	3.8320614E-03
1052.93481	3.3261304E-03
1053.29720	3.4402810E-03
1053.65952	3.6488233E-03
1054.02179	3.8610709E-03
1054.38400	3.6084524E-03
1054.74615	4.1016790E-03
1055.10823	4.3675691E-03
1055.47026	3.7057379E-03
1055.83223	3.7813841E-03
1056.19413	3.8723542E-03
1056.55598	3.6600360E-03
1056.91776	4.0758319E-03
1057.27949	3.6848569E-03
1057.64115	3.8894041E-03
1058.00276	4.2819149E-03
1058.36430	4.4946739E-03
1058.72578	4.4401965E-03
1059.08721	4.4607438E-03
1059.44857	4.5352067E-03
1059.80987	4.3607957E-03
1060.17111	4.2787456E-03
1060.53229	4.5686293E-03
1060.89341	4.5860661E-03
1061.25448	4.6264528E-03
1061.61547	3.9826921E-03
1061.97641	5.7546189E-03
1062.33729	1.5256475E-02
1062.69811	1.3885868E-02
1063.05887	1.0458515E-01
1063.41957	5.7970263E-03
